# tempo (nano s) tensione (V)
100 32.4
200 35.2
300 38.4
400 40.8
500 43.6
600 46.0
700 48.0
800 49.2
900 51.2
1000 52.8
1100 54
1200 56
1300 56.8
1400 57.6
1500 58.4
1700 59.6
2300 61.2
2800 60.8
3900 56
5000 49.6
5700 45.2
6700 39.6
7200 36.4
8300 31.6
9100 29.2
10700 24.4
12600 21.6
13800 20.8